Name: 9235QB 
Description: Standard EMI 09235QB PMT (Bialkali) 
Quantum efficiency (QE) [nm ; %]: 
 100 ; 0.00473551097576865 
 110 ; 0.00473551097576865 
 120 ; 0.00473551097576865 
 130 ; 0.00473551097576865 
 140 ; 0.00473551097576865 
 150 ; 0.00473551097576865 
 160 ; 0.0505052694983995 
 170 ; 0.154736403715566 
 180 ; 0.243424715731949 
 190 ; 0.285265493612577 
 200 ; 0.297772371711697 
 210 ; 0.292015530747408 
 220 ; 0.279325414223543 
 230 ; 0.266124220634262 
 240 ; 0.251140491893515 
 250 ; 0.242615955730625 
 260 ; 0.242969471549527 
 270 ; 0.247190166463342 
 280 ; 0.257001838406789 
 290 ; 0.267410784097995 
 300 ; 0.277011732741338 
 310 ; 0.285999674764986 
 320 ; 0.291805316683709 
 330 ; 0.295179828271319 
 340 ; 0.298807905854516 
 350 ; 0.300481809343524 
 360 ; 0.30014228316771 
 370 ; 0.29815072218803 
 380 ; 0.294362282383476 
 390 ; 0.288581945487001 
 400 ; 0.281835568276136 
 410 ; 0.274345446229559 
 420 ; 0.262946636434069 
 430 ; 0.25265744892037 
 440 ; 0.242678122434045 
 450 ; 0.228652863619718 
 460 ; 0.214867009573568 
 470 ; 0.198332328495798 
 480 ; 0.182245440697548 
 490 ; 0.165420886007117 
 500 ; 0.152129821225276 
 510 ; 0.136553308858269 
 520 ; 0.109729804441255 
 530 ; 0.0969526796552162 
 540 ; 0.0719559818126009 
 550 ; 0.0557858558225666 
 560 ; 0.0428271919226785 
 570 ; 0.0301808587401451 
 580 ; 0.0225794491249245 
 590 ; 0.0106906676309162 
 600 ; 0.00593924450282344 
 610 ; 0.00283314863850759 
 620 ; 0.00113721189723811 
 630 ; 0.00113721189723811 
 640 ; 0.00113721189723811 
 650 ; 0.00113721189723811 
 660 ; 0.00113721189723811 
 670 ; 0.00113721189723811 
 680 ; 0.00113721189723811 
 690 ; 0.00113721189723811 
 700 ; 0.00113721189723811 
 710 ; 0.00113721189723811 
 720 ; 0.00113721189723811 
 730 ; 0.00113721189723811 
 740 ; 0.00113721189723811 
 750 ; 0.00113721189723811 
 760 ; 0.00113721189723811 
 770 ; 0.00113721189723811 
 780 ; 0.00113721189723811 
 790 ; 0.00113721189723811 
 800 ; 0.00113721189723811 
 810 ; 0.00113721189723811 
 820 ; 0.00113721189723811 
 830 ; 0.00113721189723811 
 840 ; 0.00113721189723811 
 850 ; 0.00113721189723811 
 860 ; 0.00113721189723811 
 870 ; 0.00113721189723811 
 880 ; 0.00113721189723811 
 890 ; 0.00113721189723811 
 900 ; 0.00113721189723811 
 910 ; 0.00113721189723811 
 920 ; 0.00113721189723811 
 930 ; 0.00113721189723811 
 940 ; 0.00113721189723811 
 950 ; 0.00113721189723811 
 960 ; 0.00113721189723811 
 970 ; 0.00113721189723811 
 980 ; 0.00113721189723811 
 990 ; 0.00113721189723811 
 1000 ; 0.00113721189723811 
 1010 ; 0.00113721189723811 
 1020 ; 0.00113721189723811 
 1030 ; 0.00113721189723811 
 1040 ; 0.00113721189723811 
 1050 ; 0.00113721189723811 
 1060 ; 0.00113721189723811 
 1070 ; 0.00113721189723811 
 1080 ; 0.00113721189723811 
 1090 ; 0.00113721189723811 
 1100 ; 0.00113721189723811 
 1110 ; 0.00113721189723811 
 1120 ; 0.00113721189723811 
 1130 ; 0.00113721189723811 
 1140 ; 0.00113721189723811 
 1150 ; 0.00113721189723811 
 1160 ; 0.00113721189723811 
 1170 ; 0.00113721189723811 
 1180 ; 0.00113721189723811 
 1190 ; 0.00113721189723811 
 1200 ; 0.00113721189723811 
