Name: TL 
Description: Black body radiation for TL at 1000°C. 
Type: TL 
emission (s) [nm ; u.a]: 
 200 ; 1.46963281465074e-29 
 210 ; 9.67223190970613e-28 
 220 ; 4.30369021876086e-26 
 230 ; 1.36310936115491e-24 
 240 ; 3.20795195737422e-23 
 250 ; 5.81525910418658e-22 
 260 ; 8.37091993192874e-21 
 270 ; 9.81952272792232e-20 
 280 ; 9.59742654730002e-19 
 290 ; 7.9664367751966e-18 
 300 ; 5.70956518930006e-17 
 310 ; 3.58445764192815e-16 
 320 ; 1.99613876733445e-15 
 330 ; 9.97018772784108e-15 
 340 ; 4.51015336788029e-14 
 350 ; 1.86379352819185e-13 
 360 ; 7.09001198328982e-13 
 370 ; 2.49977473756287e-12 
 380 ; 8.21877937650927e-12 
 390 ; 2.53361339806722e-11 
 400 ; 7.35926765114393e-11 
 410 ; 2.02308755911964e-10 
 420 ; 5.28469929752821e-10 
 430 ; 1.31652100728298e-09 
 440 ; 3.13811580773352e-09 
 450 ; 7.17872088189322e-09 
 460 ; 1.58034143560234e-08 
 470 ; 3.35634954050684e-08 
 480 ; 6.89272561696811e-08 
 490 ; 1.37162506348058e-07 
 500 ; 2.64996220784802e-07 
 510 ; 4.97939386779502e-07 
 520 ; 9.11503605992247e-07 
 530 ; 1.62795949429102e-06 
 540 ; 2.84080187876792e-06 
 550 ; 4.84969570850982e-06 
 560 ; 8.10937692974996e-06 
 570 ; 1.32967658861542e-05 
 580 ; 2.14014022173865e-05 
 590 ; 3.38452082956012e-05 
 600 ; 5.26385052373306e-05 
 610 ; 8.0580108207918e-05 
 620 ; 0.00012151017848727 
 630 ; 0.000180625268139085 
 640 ; 0.000264865617612665 
 650 ; 0.000383385216574363 
 660 ; 0.000548115375922635 
 670 ; 0.00077443255121245 
 680 ; 0.00108194087792659 
 690 ; 0.00149537930829766 
 700 ; 0.0020456623676445 
 710 ; 0.00277106237483107 
 720 ; 0.00371853950553676 
 730 ; 0.00494522433704875 
 740 ; 0.00652005552661293 
 750 ; 0.00852557307729535 
 760 ; 0.011059865277807 
 770 ; 0.0142386649131106 
 780 ; 0.0181975877818598 
 790 ; 0.0230945039779211 
 800 ; 0.0291120298499669 
 810 ; 0.0364601260979058 
 820 ; 0.0453787851477183 
 830 ; 0.0561407888133035 
 840 ; 0.0690545153465412 
 850 ; 0.0844667733306072 
 860 ; 0.102765638515859 
 870 ; 0.124383268654891 
 880 ; 0.149798670679155 
 890 ; 0.179540394182458 
 900 ; 0.214189125138452 
 910 ; 0.254380154075435 
 920 ; 0.300805693551742 
 930 ; 0.354217020702905 
 940 ; 0.415426421847089 
 950 ; 0.485308917613475 
 960 ; 0.564803748771626 
 970 ; 0.654915604858197 
 980 ; 0.756715579788783 
 990 ; 0.871341840874327 
 1000 ; 1 
